File: SD_team/data/316SS.txt
#FORMAT      : EMSA/MAS Spectral Data File
#VERSION     : 1.0
#TITLE       : Spectrum 2
#DATE        : 22-NOV-2024
#TIME        : 10:32
#OWNER       :
#NPOINTS     : 2048.0
#NCOLUMNS    : 1.0
#XUNITS      : keV
#YUNITS      : counts
#DATATYPE    : XY
#XPERCHAN    : 0.01
#OFFSET      : -0.2
#SIGNALTYPE  : EDS
#CHOFFSET    : 20.0
#LIVETIME    : 94.2907
#REALTIME    : 96.913
#BEAMKV      : 20.0
#MAGCAM      : 60.0
#XTILTSTGE   : 0.0
#AZIMANGLE   : 0.0
#ELEVANGLE   : 35.0
#XPOSITION mm: 27.1809
#YPOSITION mm: 30.9046
#ZPOSITION mm: 10.0000
##OXINSTPT   : 4
##OXINSTSTROB: 48.88
##OXINSTNDET : 1
##OXINSTELEMS: 24	26	6	28	25	14	42
##OXINSTLABEL: 24	5.415	 Cr
##OXINSTLABEL: 24	5.947	 Cr
##OXINSTLABEL: 24	0.573	 Cr
##OXINSTLABEL: 24	0.5	 Cr
##OXINSTLABEL: 26	6.404	 Fe
##OXINSTLABEL: 26	7.058	 Fe
##OXINSTLABEL: 26	0.703	 Fe
##OXINSTLABEL: 26	0.615	 Fe
##OXINSTLABEL: 6	0.277	 C
##OXINSTLABEL: 28	7.478	 Ni
##OXINSTLABEL: 28	8.265	 Ni
##OXINSTLABEL: 28	0.851	 Ni
##OXINSTLABEL: 28	0.762	 Ni
##OXINSTLABEL: 28	0.743	 Ni
##OXINSTLABEL: 25	5.899	 Mn
##OXINSTLABEL: 25	6.49	 Mn
##OXINSTLABEL: 25	0.636	 Mn
##OXINSTLABEL: 25	0.556	 Mn
##OXINSTLABEL: 14	1.74	 Si
##OXINSTLABEL: 42	17.48	 Mo
##OXINSTLABEL: 42	19.609	 Mo
##OXINSTLABEL: 42	19.965	 Mo
##OXINSTLABEL: 42	2.293	 Mo
##OXINSTLABEL: 42	2.395	 Mo
##OXINSTLABEL: 42	2.12	 Mo
##OXINSTLABEL: 42	2.831	 Mo
##OXINSTLABEL: 42	2.016	 Mo
##OXINSTLABEL: 42	0.193	 Mo
#SPECTRUM    : Spectral Data Starts Here
-0.2	0
-0.13	0
-0.06	8
0.01	2778
0.08	1131
0.15	65
0.22	134
0.29	310
0.36	99
0.43	170
0.5	558
0.57	788
0.64	868
0.71	2149
0.78	264
0.85	602
0.92	167
0.99	106
1.06	106
1.13	147
1.2	137
1.27	142
1.34	188
1.41	190
1.48	220
1.55	199
1.62	197
1.69	238
1.76	333
1.83	238
1.9	213
1.97	218
2.04	222
2.11	226
2.18	248
2.25	354
2.32	497
2.39	352
2.46	276
2.53	246
2.6	218
2.67	213
2.74	204
2.81	206
2.88	198
2.95	215
3.02	194
3.09	218
3.16	204
3.23	182
3.3	206
3.37	181
3.44	171
3.51	167
3.58	196
3.65	201
3.72	177
3.79	188
3.86	159
3.93	168
4	167
4.07	148
4.14	137
4.21	160
4.28	145
4.35	136
4.42	140
4.49	147
4.56	152
4.63	149
4.7	156
4.77	113
4.84	125
4.91	137
4.98	142
5.05	114
5.12	132
5.19	122
5.26	150
5.33	744
5.4	2376
5.47	1484
5.54	268
5.61	124
5.68	122
5.75	106
5.82	188
5.89	438
5.96	510
6.03	217
6.1	98
6.17	92
6.24	220
6.31	1562
6.38	4867
6.45	3684
6.52	703
6.59	131
6.66	85
6.73	87
6.8	86
6.87	101
6.94	231
7.01	599
7.08	695
7.15	264
7.22	90
7.29	59
7.36	191
7.43	531
7.5	627
7.57	236
7.64	83
7.71	54
7.78	57
7.85	53
7.92	76
7.99	76
8.06	68
8.13	77
8.2	119
8.27	134
8.34	86
8.41	59
8.48	54
8.55	57
8.62	48
8.69	53
8.76	34
8.83	37
8.9	50
8.97	54
9.04	44
9.11	53
9.18	44
9.25	48
9.32	46
9.39	46
9.46	39
9.53	37
9.6	43
9.67	42
9.74	30
9.81	32
9.88	41
9.95	42
10.02	44
10.09	35
10.16	40
10.23	42
10.3	38
10.37	34
10.44	36
10.51	28
10.58	34
10.65	31
10.72	32
10.79	38
10.86	28
10.93	36
11	31
11.07	28
11.14	31
11.21	27
11.28	26
11.35	23
11.42	29
11.49	24
11.56	22
11.63	24
11.7	26
11.77	27
11.84	27
11.91	26
11.98	29
12.05	21
12.12	27
12.19	22
12.26	20
12.33	28
12.4	18
12.47	25
12.54	21
12.61	16
12.68	21
12.75	25
12.82	25
12.89	24
12.96	18
13.03	22
13.1	27
13.17	19
13.24	17
13.31	10
13.38	17
13.45	20
13.52	21
13.59	14
13.66	12
13.73	19
13.8	13
13.87	19
13.94	10
14.01	16
14.08	11
14.15	17
14.22	15
14.29	12
14.36	14
14.43	13
14.5	11
14.57	10
14.64	15
14.71	13
14.78	8
14.85	12
14.92	10
14.99	8
15.06	8
15.13	12
15.2	8
15.27	7
15.34	7
15.41	9
15.48	7
15.55	9
15.62	10
15.69	6
15.76	5
15.83	6
15.9	8
15.97	8
16.04	8
16.11	7
16.18	6
16.25	7
16.32	5
16.39	6
16.46	6
16.53	5
16.6	5
16.67	8
16.74	5
16.81	5
16.88	2
16.95	4
17.02	4
17.09	4
17.16	5
17.23	4
17.3	3
17.37	4
17.44	2
17.51	5
17.58	3
17.65	2
17.72	3
17.79	3
17.86	5
17.93	2
18	4
18.07	3
18.14	2
18.21	2
18.28	3
18.35	3
18.42	1
18.49	1
18.56	1
18.63	2
18.7	1
18.77	2
18.84	0
18.91	3
18.98	1
19.05	1
19.12	1
19.19	0
19.26	1
19.33	1
19.4	0
19.47	3
19.54	0
19.61	0
19.68	1
19.75	0
19.82	0
19.89	0
19.96	1
20.03	0
20.1	0
20.17	0
20.24	0
20.27	0
#ENDOFDATA   :